##TITLE=No Description
##DATA TYPE=INFRARED SPECTRUM
##XUNITS=1/CM
##YUNITS=%T
399.264912  	97.357241 
401.193728  	89.832377 
403.122544  	93.137961 
405.051360  	101.352975 
406.980176  	103.830250 
408.908992  	99.791874 
410.837808  	97.013334 
412.766624  	94.734698 
414.695440  	96.825888 
416.624256  	100.314784 
418.553072  	96.261537 
420.481888  	99.193744 
422.410704  	104.649403 
424.339520  	107.036236 
426.268336  	109.013285 
428.197152  	103.748006 
430.125968  	101.218547 
432.054784  	101.171180 
433.983600  	100.557134 
435.912416  	99.866604 
437.841232  	104.205747 
439.770048  	105.396069 
441.698864  	101.625312 
443.627680  	102.540398 
445.556496  	104.374390 
447.485312  	103.118321 
449.414128  	98.149497 
451.342944  	98.654007 
453.271760  	98.567504 
455.200576  	97.105297 
457.129392  	98.642428 
459.058208  	100.789748 
460.987024  	101.065687 
462.915840  	101.893023 
464.844656  	104.142670 
466.773472  	110.764608 
468.702288  	109.256389 
470.631104  	103.177982 
472.559920  	100.004632 
474.488736  	95.644155 
476.417552  	95.832317 
478.346368  	97.831503 
480.275184  	102.427121 
482.204000  	101.617698 
484.132816  	96.520948 
486.061632  	98.070123 
487.990448  	104.198596 
489.919264  	108.586266 
491.848080  	110.028485 
493.776896  	104.659639 
495.705712  	101.267530 
497.634528  	102.391483 
499.563344  	100.877072 
501.492160  	97.103086 
503.420976  	99.217218 
505.349792  	101.763365 
507.278608  	101.190959 
509.207424  	101.332679 
511.136240  	101.568884 
513.065056  	101.639388 
514.993872  	101.172021 
516.922688  	100.007665 
518.851504  	100.669343 
520.780320  	100.549226 
522.709136  	99.412921 
524.637952  	98.969755 
526.566768  	99.405639 
528.495584  	100.887917 
530.424400  	101.616285 
532.353216  	101.507551 
534.282032  	101.415489 
536.210848  	99.552014 
538.139664  	98.296963 
540.068480  	97.519673 
541.997296  	98.240560 
543.926112  	98.346696 
545.854928  	98.494556 
547.783744  	98.535733 
549.712560  	97.367664 
551.641376  	97.400168 
553.570192  	98.171976 
555.499008  	98.104435 
557.427824  	97.659416 
559.356640  	98.436331 
561.285456  	99.155586 
563.214272  	98.855673 
565.143088  	98.482166 
567.071904  	98.114435 
569.000720  	97.848589 
570.929536  	97.558331 
572.858352  	96.982107 
574.787168  	97.601703 
576.715984  	97.773974 
578.644800  	97.431033 
580.573616  	97.489701 
582.502432  	97.659162 
584.431248  	97.470145 
586.360064  	97.314910 
588.288880  	97.335251 
590.217696  	97.002669 
592.146512  	96.711409 
594.075328  	96.609550 
596.004144  	96.862744 
597.932960  	97.038210 
599.861776  	96.966019 
601.790592  	96.985479 
603.719408  	97.184583 
605.648224  	96.995398 
607.577040  	96.835937 
609.505856  	96.627143 
611.434672  	96.767710 
613.363488  	97.362537 
615.292304  	97.549360 
617.221120  	97.391350 
619.149936  	97.387424 
621.078752  	97.143659 
623.007568  	97.014752 
624.936384  	97.198634 
626.865200  	97.290577 
628.794016  	97.273626 
630.722832  	97.234505 
632.651648  	97.141862 
634.580464  	97.172120 
636.509280  	97.301830 
638.438096  	97.190180 
640.366912  	97.047158 
642.295728  	97.054695 
644.224544  	97.175276 
646.153360  	97.227987 
648.082176  	97.102436 
650.010992  	97.023965 
651.939808  	96.996895 
653.868624  	96.930413 
655.797440  	97.029552 
657.726256  	97.029858 
659.655072  	96.966378 
661.583888  	97.112779 
663.512704  	97.083406 
665.441520  	96.906943 
667.370336  	96.924119 
669.299152  	97.052257 
671.227968  	97.046799 
673.156784  	97.044835 
675.085600  	97.016257 
677.014416  	97.076346 
678.943232  	97.062854 
680.872048  	97.031075 
682.800864  	97.078102 
684.729680  	97.072743 
686.658496  	97.053695 
688.587312  	97.057904 
690.516128  	97.094690 
692.444944  	97.065615 
694.373760  	97.084804 
696.302576  	97.113785 
698.231392  	97.063404 
700.160208  	97.097943 
702.089024  	97.094830 
704.017840  	97.048982 
705.946656  	97.083887 
707.875472  	97.159493 
709.804288  	97.159678 
711.733104  	97.164273 
713.661920  	97.219030 
715.590736  	97.276912 
717.519552  	97.320744 
719.448368  	97.312705 
721.377184  	97.325011 
723.306000  	97.417418 
725.234816  	97.490440 
727.163632  	97.519015 
729.092448  	97.506201 
731.021264  	97.501889 
732.950080  	97.513911 
734.878896  	97.516171 
736.807712  	97.526803 
738.736528  	97.581942 
740.665344  	97.549314 
742.594160  	97.505598 
744.522976  	97.511185 
746.451792  	97.533896 
748.380608  	97.513440 
750.309424  	97.484989 
752.238240  	97.447233 
754.167056  	97.384662 
756.095872  	97.383429 
758.024688  	97.399846 
759.953504  	97.349661 
761.882320  	97.309265 
763.811136  	97.364527 
765.739952  	97.419965 
767.668768  	97.477522 
769.597584  	97.549745 
771.526400  	97.636897 
773.455216  	97.688308 
775.384032  	97.717845 
777.312848  	97.746798 
779.241664  	97.801688 
781.170480  	97.825468 
783.099296  	97.851958 
785.028112  	97.878615 
786.956928  	97.877512 
788.885744  	97.868792 
790.814560  	97.916914 
792.743376  	97.955526 
794.672192  	97.952138 
796.601008  	97.954201 
798.529824  	97.958433 
800.458640  	98.012207 
802.387456  	98.056425 
804.316272  	98.052341 
806.245088  	98.065708 
808.173904  	98.079163 
810.102720  	98.092267 
812.031536  	98.062169 
813.960352  	98.013767 
815.889168  	98.019290 
817.817984  	98.057304 
819.746800  	98.042909 
821.675616  	98.049057 
823.604432  	98.094002 
825.533248  	98.099804 
827.462064  	98.049221 
829.390880  	98.012208 
831.319696  	97.965500 
833.248512  	97.907024 
835.177328  	97.886592 
837.106144  	97.901390 
839.034960  	97.911801 
840.963776  	97.875243 
842.892592  	97.823794 
844.821408  	97.833759 
846.750224  	97.803062 
848.679040  	97.746208 
850.607856  	97.795722 
852.536672  	97.822965 
854.465488  	97.786182 
856.394304  	97.761629 
858.323120  	97.770774 
860.251936  	97.817251 
862.180752  	97.833730 
864.109568  	97.844481 
866.038384  	97.875887 
867.967200  	97.945040 
869.896016  	97.996763 
871.824832  	98.043290 
873.753648  	98.117654 
875.682464  	98.156914 
877.611280  	98.181768 
879.540096  	98.224858 
881.468912  	98.259402 
883.397728  	98.260601 
885.326544  	98.243394 
887.255360  	98.195623 
889.184176  	98.151869 
891.112992  	98.108604 
893.041808  	98.030358 
894.970624  	97.996941 
896.899440  	97.982640 
898.828256  	97.955364 
900.757072  	97.939424 
902.685888  	97.956030 
904.614704  	97.925479 
906.543520  	97.837352 
908.472336  	97.785113 
910.401152  	97.750941 
912.329968  	97.691199 
914.258784  	97.608739 
916.187600  	97.540407 
918.116416  	97.522440 
920.045232  	97.498570 
921.974048  	97.430904 
923.902864  	97.418644 
925.831680  	97.428384 
927.760496  	97.400990 
929.689312  	97.407294 
931.618128  	97.473330 
933.546944  	97.495553 
935.475760  	97.499736 
937.404576  	97.523632 
939.333392  	97.542957 
941.262208  	97.574697 
943.191024  	97.630656 
945.119840  	97.661597 
947.048656  	97.673612 
948.977472  	97.700423 
950.906288  	97.715440 
952.835104  	97.710878 
954.763920  	97.713696 
956.692736  	97.658112 
958.621552  	97.546272 
960.550368  	97.442813 
962.479184  	97.354705 
964.408000  	97.258031 
966.336816  	97.136328 
968.265632  	96.987841 
970.194448  	96.858577 
972.123264  	96.702401 
974.052080  	96.547689 
975.980896  	96.351539 
977.909712  	96.160088 
979.838528  	95.972541 
981.767344  	95.759488 
983.696160  	95.534347 
985.624976  	95.352265 
987.553792  	95.210255 
989.482608  	95.113150 
991.411424  	95.013567 
993.340240  	94.946418 
995.269056  	94.942974 
997.197872  	94.960598 
999.126688  	95.013019 
1001.055504  	95.051195 
1002.984320  	95.063802 
1004.913136  	95.092514 
1006.841952  	95.109449 
1008.770768  	95.093020 
1010.699584  	95.057483 
1012.628400  	95.037238 
1014.557216  	95.037041 
1016.486032  	95.066518 
1018.414848  	95.113250 
1020.343664  	95.182512 
1022.272480  	95.243078 
1024.201296  	95.299656 
1026.130112  	95.387550 
1028.058928  	95.518870 
1029.987744  	95.624873 
1031.916560  	95.685037 
1033.845376  	95.772970 
1035.774192  	95.858188 
1037.703008  	95.920048 
1039.631824  	95.966932 
1041.560640  	96.042100 
1043.489456  	96.131765 
1045.418272  	96.209590 
1047.347088  	96.269972 
1049.275904  	96.356327 
1051.204720  	96.469768 
1053.133536  	96.589360 
1055.062352  	96.707280 
1056.991168  	96.828505 
1058.919984  	96.976436 
1060.848800  	97.086562 
1062.777616  	97.177639 
1064.706432  	97.256721 
1066.635248  	97.304626 
1068.564064  	97.252193 
1070.492880  	97.094060 
1072.421696  	96.929357 
1074.350512  	96.785737 
1076.279328  	96.705393 
1078.208144  	96.689450 
1080.136960  	96.746854 
1082.065776  	96.871449 
1083.994592  	97.025095 
1085.923408  	97.165149 
1087.852224  	97.257731 
1089.781040  	97.347252 
1091.709856  	97.415993 
1093.638672  	97.468196 
1095.567488  	97.462561 
1097.496304  	97.437920 
1099.425120  	97.416704 
1101.353936  	97.404303 
1103.282752  	97.407321 
1105.211568  	97.435269 
1107.140384  	97.462383 
1109.069200  	97.480824 
1110.998016  	97.521656 
1112.926832  	97.564667 
1114.855648  	97.599896 
1116.784464  	97.657295 
1118.713280  	97.677324 
1120.642096  	97.672083 
1122.570912  	97.696419 
1124.499728  	97.750344 
1126.428544  	97.790652 
1128.357360  	97.829147 
1130.286176  	97.847708 
1132.214992  	97.842976 
1134.143808  	97.839270 
1136.072624  	97.809920 
1138.001440  	97.770058 
1139.930256  	97.681877 
1141.859072  	97.580119 
1143.787888  	97.506663 
1145.716704  	97.443319 
1147.645520  	97.394244 
1149.574336  	97.356432 
1151.503152  	97.371600 
1153.431968  	97.443570 
1155.360784  	97.558848 
1157.289600  	97.669330 
1159.218416  	97.806686 
1161.147232  	97.979611 
1163.076048  	98.148343 
1165.004864  	98.304187 
1166.933680  	98.442296 
1168.862496  	98.578463 
1170.791312  	98.687073 
1172.720128  	98.773527 
1174.648944  	98.835096 
1176.577760  	98.868988 
1178.506576  	98.898784 
1180.435392  	98.934627 
1182.364208  	98.944936 
1184.293024  	98.930402 
1186.221840  	98.899247 
1188.150656  	98.876597 
1190.079472  	98.861992 
1192.008288  	98.835068 
1193.937104  	98.809366 
1195.865920  	98.775541 
1197.794736  	98.741026 
1199.723552  	98.721017 
1201.652368  	98.716034 
1203.581184  	98.711894 
1205.510000  	98.698077 
1207.438816  	98.708663 
1209.367632  	98.714489 
1211.296448  	98.706313 
1213.225264  	98.729400 
1215.154080  	98.753365 
1217.082896  	98.731061 
1219.011712  	98.694478 
1220.940528  	98.695902 
1222.869344  	98.682319 
1224.798160  	98.650389 
1226.726976  	98.633166 
1228.655792  	98.616569 
1230.584608  	98.603133 
1232.513424  	98.592362 
1234.442240  	98.577293 
1236.371056  	98.572499 
1238.299872  	98.541080 
1240.228688  	98.532182 
1242.157504  	98.544902 
1244.086320  	98.545209 
1246.015136  	98.541030 
1247.943952  	98.537899 
1249.872768  	98.535675 
1251.801584  	98.536421 
1253.730400  	98.545196 
1255.659216  	98.539361 
1257.588032  	98.507904 
1259.516848  	98.494136 
1261.445664  	98.500031 
1263.374480  	98.504356 
1265.303296  	98.507538 
1267.232112  	98.511882 
1269.160928  	98.516072 
1271.089744  	98.532146 
1273.018560  	98.546122 
1274.947376  	98.565957 
1276.876192  	98.560153 
1278.805008  	98.538118 
1280.733824  	98.527734 
1282.662640  	98.519677 
1284.591456  	98.500941 
1286.520272  	98.483092 
1288.449088  	98.487221 
1290.377904  	98.489159 
1292.306720  	98.480696 
1294.235536  	98.471302 
1296.164352  	98.434673 
1298.093168  	98.413404 
1300.021984  	98.423630 
1301.950800  	98.439508 
1303.879616  	98.451409 
1305.808432  	98.435443 
1307.737248  	98.426330 
1309.666064  	98.409378 
1311.594880  	98.347989 
1313.523696  	98.311357 
1315.452512  	98.316945 
1317.381328  	98.288605 
1319.310144  	98.268742 
1321.238960  	98.299874 
1323.167776  	98.312557 
1325.096592  	98.295767 
1327.025408  	98.251528 
1328.954224  	98.229760 
1330.883040  	98.230918 
1332.811856  	98.242355 
1334.740672  	98.194224 
1336.669488  	98.059876 
1338.598304  	97.929706 
1340.527120  	98.026062 
1342.455936  	98.191188 
1344.384752  	98.217289 
1346.313568  	98.201618 
1348.242384  	98.207130 
1350.171200  	98.218796 
1352.100016  	98.200402 
1354.028832  	98.167213 
1355.957648  	98.153207 
1357.886464  	98.128527 
1359.815280  	98.041457 
1361.744096  	97.917041 
1363.672912  	97.980858 
1365.601728  	98.100653 
1367.530544  	98.070668 
1369.459360  	98.076452 
1371.388176  	98.063653 
1373.316992  	97.931368 
1375.245808  	97.964652 
1377.174624  	98.079632 
1379.103440  	98.124844 
1381.032256  	98.159773 
1382.961072  	98.177505 
1384.889888  	98.135000 
1386.818704  	98.033279 
1388.747520  	98.114307 
1390.676336  	98.192733 
1392.605152  	98.104315 
1394.533968  	97.927181 
1396.462784  	97.924567 
1398.391600  	97.974234 
1400.320416  	98.114979 
1402.249232  	98.169172 
1404.178048  	98.086483 
1406.106864  	98.114693 
1408.035680  	98.176440 
1409.964496  	98.155725 
1411.893312  	98.153775 
1413.822128  	98.167074 
1415.750944  	98.048699 
1417.679760  	97.847959 
1419.608576  	97.940663 
1421.537392  	98.124676 
1423.466208  	98.127367 
1425.395024  	98.232235 
1427.323840  	98.285513 
1429.252656  	98.218500 
1431.181472  	98.231809 
1433.110288  	98.239637 
1435.039104  	98.111167 
1436.967920  	98.097781 
1438.896736  	98.320329 
1440.825552  	98.408533 
1442.754368  	98.411108 
1444.683184  	98.363561 
1446.612000  	98.265317 
1448.540816  	98.279920 
1450.469632  	98.319787 
1452.398448  	98.243664 
1454.327264  	98.060370 
1456.256080  	97.712162 
1458.184896  	97.852223 
1460.113712  	98.243238 
1462.042528  	98.364835 
1463.971344  	98.289969 
1465.900160  	98.390486 
1467.828976  	98.497915 
1469.757792  	98.404410 
1471.686608  	98.133693 
1473.615424  	98.149038 
1475.544240  	98.373472 
1477.473056  	98.601670 
1479.401872  	98.703993 
1481.330688  	98.710561 
1483.259504  	98.760166 
1485.188320  	98.684361 
1487.117136  	98.465548 
1489.045952  	98.290018 
1490.974768  	98.520163 
1492.903584  	98.758146 
1494.832400  	98.683669 
1496.761216  	98.527538 
1498.690032  	98.593348 
1500.618848  	98.734496 
1502.547664  	98.760436 
1504.476480  	98.501922 
1506.405296  	97.807363 
1508.334112  	97.980786 
1510.262928  	98.417917 
1512.191744  	98.622157 
1514.120560  	98.573834 
1516.049376  	98.339714 
1517.978192  	98.332062 
1519.907008  	98.258062 
1521.835824  	98.173626 
1523.764640  	98.368908 
1525.693456  	98.399058 
1527.622272  	98.510917 
1529.551088  	98.645527 
1531.479904  	98.528361 
1533.408720  	98.380660 
1535.337536  	98.535476 
1537.266352  	98.428692 
1539.195168  	97.899977 
1541.123984  	97.805718 
1543.052800  	98.043421 
1544.981616  	98.320721 
1546.910432  	98.566512 
1548.839248  	98.500158 
1550.768064  	98.475913 
1552.696880  	98.469629 
1554.625696  	98.290639 
1556.554512  	98.085276 
1558.483328  	97.728196 
1560.412144  	98.224094 
1562.340960  	98.535618 
1564.269776  	98.570615 
1566.198592  	98.576197 
1568.127408  	98.466880 
1570.056224  	98.420368 
1571.985040  	98.581047 
1573.913856  	98.531364 
1575.842672  	98.379472 
1577.771488  	98.523188 
1579.700304  	98.678894 
1581.629120  	98.700502 
1583.557936  	98.708008 
1585.486752  	98.713109 
1587.415568  	98.684042 
1589.344384  	98.658706 
1591.273200  	98.659124 
1593.202016  	98.647114 
1595.130832  	98.655832 
1597.059648  	98.686546 
1598.988464  	98.689703 
1600.917280  	98.650017 
1602.846096  	98.621983 
1604.774912  	98.628628 
1606.703728  	98.614246 
1608.632544  	98.597513 
1610.561360  	98.622974 
1612.490176  	98.620293 
1614.418992  	98.499675 
1616.347808  	98.350642 
1618.276624  	98.491603 
1620.205440  	98.540819 
1622.134256  	98.383302 
1624.063072  	98.385594 
1625.991888  	98.472481 
1627.920704  	98.465467 
1629.849520  	98.543516 
1631.778336  	98.556402 
1633.707152  	98.359871 
1635.635968  	98.074693 
1637.564784  	98.251799 
1639.493600  	98.450108 
1641.422416  	98.519864 
1643.351232  	98.446966 
1645.280048  	98.160229 
1647.208864  	98.002697 
1649.137680  	98.229147 
1651.066496  	98.173670 
1652.995312  	97.805452 
1654.924128  	98.189106 
1656.852944  	98.515448 
1658.781760  	98.599094 
1660.710576  	98.519130 
1662.639392  	98.459827 
1664.568208  	98.589888 
1666.497024  	98.578448 
1668.425840  	98.341888 
1670.354656  	98.315728 
1672.283472  	98.474431 
1674.212288  	98.466762 
1676.141104  	98.525031 
1678.069920  	98.601209 
1679.998736  	98.487335 
1681.927552  	98.301962 
1683.856368  	98.048302 
1685.785184  	98.379885 
1687.714000  	98.534959 
1689.642816  	98.610005 
1691.571632  	98.718437 
1693.500448  	98.638098 
1695.429264  	98.349017 
1697.358080  	98.239074 
1699.286896  	98.213967 
1701.215712  	98.365824 
1703.144528  	98.516320 
1705.073344  	98.475474 
1707.002160  	98.591206 
1708.930976  	98.723778 
1710.859792  	98.741467 
1712.788608  	98.657580 
1714.717424  	98.441017 
1716.646240  	98.267390 
1718.575056  	98.433008 
1720.503872  	98.712844 
1722.432688  	98.800853 
1724.361504  	98.831390 
1726.290320  	98.852558 
1728.219136  	98.773245 
1730.147952  	98.626029 
1732.076768  	98.480984 
1734.005584  	98.407249 
1735.934400  	98.664024 
1737.863216  	98.741834 
1739.792032  	98.696415 
1741.720848  	98.716015 
1743.649664  	98.681743 
1745.578480  	98.673499 
1747.507296  	98.569451 
1749.436112  	98.513411 
1751.364928  	98.678410 
1753.293744  	98.908763 
1755.222560  	98.905095 
1757.151376  	98.817832 
1759.080192  	98.840185 
1761.009008  	98.791244 
1762.937824  	98.859031 
1764.866640  	98.952284 
1766.795456  	98.855681 
1768.724272  	98.750223 
1770.653088  	98.652821 
1772.581904  	98.617255 
1774.510720  	98.793627 
1776.439536  	98.893565 
1778.368352  	98.866621 
1780.297168  	98.830717 
1782.225984  	98.885299 
1784.154800  	98.882290 
1786.083616  	98.936011 
1788.012432  	98.969619 
1789.941248  	98.799703 
1791.870064  	98.643500 
1793.798880  	98.766756 
1795.727696  	98.858653 
1797.656512  	98.867976 
1799.585328  	98.811397 
1801.514144  	98.818353 
1803.442960  	98.935371 
1805.371776  	98.978058 
1807.300592  	98.937585 
1809.229408  	98.867870 
1811.158224  	98.868162 
1813.087040  	98.952013 
1815.015856  	98.996442 
1816.944672  	98.994012 
1818.873488  	98.983470 
1820.802304  	98.935532 
1822.731120  	98.843284 
1824.659936  	98.763891 
1826.588752  	98.809216 
1828.517568  	98.771987 
1830.446384  	98.769647 
1832.375200  	98.911525 
1834.304016  	98.955024 
1836.232832  	98.932112 
1838.161648  	98.957503 
1840.090464  	98.952190 
1842.019280  	98.841940 
1843.948096  	98.720184 
1845.876912  	98.773047 
1847.805728  	98.860988 
1849.734544  	98.929918 
1851.663360  	98.980103 
1853.592176  	99.003674 
1855.520992  	99.035940 
1857.449808  	99.030839 
1859.378624  	99.007083 
1861.307440  	98.997539 
1863.236256  	98.991597 
1865.165072  	98.894124 
1867.093888  	98.736010 
1869.022704  	98.710960 
1870.951520  	98.873785 
1872.880336  	98.966781 
1874.809152  	98.986429 
1876.737968  	98.982493 
1878.666784  	99.006897 
1880.595600  	99.019356 
1882.524416  	98.975019 
1884.453232  	98.948455 
1886.382048  	98.932293 
1888.310864  	98.853832 
1890.239680  	98.844820 
1892.168496  	98.895332 
1894.097312  	98.906956 
